# progression for http://henke.lbl.gov/optical_constants/atten2.html
# 100eV-500eV always in 500 steps, 500-1000eV, 1000-2000, 2000-4000, 4000-8000, 8000-16000, 16000-30000
# C Density=3.51, Angle=90.deg
# Photon Energy (eV), Atten Length (microns)
   100.000  0.116832
   100.322  0.117633
   100.646  0.118440
   100.970  0.119252
   101.296  0.120071
   101.622  0.120894
   101.950  0.121724
   102.279  0.122559
   102.609  0.123399
   102.939  0.124246
   103.271  0.125098
   103.604  0.125956
   103.938  0.126820
   104.273  0.127690
   104.610  0.128566
   104.947  0.129448
   105.285  0.130336
   105.625  0.131230
   105.965  0.132130
   106.307  0.133036
   106.649  0.133949
   106.993  0.134868
   107.338  0.135793
   107.684  0.136724
   108.032  0.137662
   108.380  0.138607
   108.729  0.139557
   109.080  0.140515
   109.431  0.141479
   109.784  0.142449
   110.138  0.143427
   110.493  0.144410
   110.850  0.145401
   111.207  0.146399
   111.566  0.147403
   111.925  0.148414
   112.286  0.149432
   112.648  0.150457
   113.011  0.151489
   113.376  0.152529
   113.741  0.153575
   114.108  0.154628
   114.476  0.155689
   114.845  0.156757
   115.215  0.157832
   115.587  0.158915
   115.959  0.160005
   116.333  0.161102
   116.708  0.162207
   117.084  0.163320
   117.462  0.164440
   117.841  0.165568
   118.221  0.166704
   118.602  0.167848
   118.984  0.168999
   119.368  0.170158
   119.753  0.171326
   120.139  0.172501
   120.526  0.173684
   120.915  0.174876
   121.304  0.176075
   121.695  0.177283
   122.088  0.178499
   122.481  0.179724
   122.876  0.180956
   123.272  0.182198
   123.670  0.183448
   124.069  0.184706
   124.469  0.185973
   124.870  0.187248
   125.273  0.188533
   125.676  0.189826
   126.082  0.191128
   126.488  0.192439
   126.896  0.193759
   127.305  0.195089
   127.715  0.196428
   128.127  0.197775
   128.540  0.199132
   128.955  0.200498
   129.370  0.201873
   129.788  0.203258
   130.206  0.204652
   130.626  0.206055
   131.047  0.207469
   131.469  0.208892
   131.893  0.210324
   132.319  0.211767
   132.745  0.213306
   133.173  0.214876
   133.603  0.216457
   134.033  0.218050
   134.465  0.219655
   134.899  0.221272
   135.334  0.222900
   135.770  0.224540
   136.208  0.226193
   136.647  0.227858
   137.088  0.229535
   137.530  0.231224
   137.973  0.232926
   138.418  0.234640
   138.864  0.236367
   139.312  0.238107
   139.761  0.239859
   140.212  0.241625
   140.664  0.243403
   141.117  0.245194
   141.572  0.246999
   142.028  0.248816
   142.486  0.250647
   142.946  0.252491
   143.407  0.254349
   143.869  0.256221
   144.333  0.258107
   144.798  0.260007
   145.265  0.261921
   145.733  0.263848
   146.203  0.265790
   146.675  0.267746
   147.147  0.269717
   147.622  0.271702
   148.098  0.273701
   148.575  0.275715
   149.054  0.277744
   149.535  0.279788
   150.017  0.281847
   150.501  0.283922
   150.986  0.286011
   151.473  0.288117
   151.961  0.290238
   152.451  0.292374
   152.942  0.294527
   153.436  0.296694
   153.930  0.298877
   154.427  0.301076
   154.924  0.303292
   155.424  0.305523
   155.925  0.307772
   156.428  0.310037
   156.932  0.312319
   157.438  0.314617
   157.946  0.316933
   158.455  0.319265
   158.966  0.321616
   159.478  0.323983
   159.992  0.326368
   160.508  0.328770
   161.026  0.331190
   161.545  0.333627
   162.066  0.336083
   162.588  0.338556
   163.112  0.341048
   163.638  0.343557
   164.166  0.346085
   164.695  0.348632
   165.226  0.351197
   165.759  0.353781
   166.293  0.356385
   166.829  0.359008
   167.367  0.361651
   167.907  0.364313
   168.448  0.366994
   168.991  0.369695
   169.536  0.372416
   170.083  0.375157
   170.631  0.377918
   171.181  0.380699
   171.733  0.383501
   172.287  0.386323
   172.842  0.389166
   173.399  0.392030
   173.959  0.394915
   174.519  0.397821
   175.082  0.400750
   175.646  0.403699
   176.213  0.406671
   176.781  0.409664
   177.351  0.412679
   177.923  0.415716
   178.496  0.418775
   179.072  0.421857
   179.649  0.424962
   180.228  0.428089
   180.809  0.431239
   181.392  0.434413
   181.977  0.437609
   182.564  0.440830
   183.152  0.444074
   183.743  0.447343
   184.335  0.450636
   184.930  0.453953
   185.526  0.457390
   186.124  0.461447
   186.724  0.465539
   187.326  0.469667
   187.930  0.473832
   188.536  0.478037
   189.144  0.482291
   189.754  0.486584
   190.365  0.490914
   190.979  0.495284
   191.595  0.499692
   192.213  0.504138
   192.832  0.508623
   193.454  0.513149
   194.078  0.517715
   194.703  0.522321
   195.331  0.526969
   195.961  0.531658
   196.593  0.536390
   197.227  0.541163
   197.862  0.545979
   198.500  0.550837
   199.140  0.555740
   199.782  0.560685
   200.426  0.565675
   201.073  0.570709
   201.721  0.575788
   202.371  0.580912
   203.024  0.586081
   203.678  0.591297
   204.335  0.596559
   204.994  0.601866
   205.655  0.607222
   206.318  0.612624
   206.983  0.618075
   207.650  0.623575
   208.320  0.629125
   208.991  0.634725
   209.665  0.640374
   210.341  0.646074
   211.019  0.651823
   211.700  0.657624
   212.382  0.663475
   213.067  0.669378
   213.754  0.675334
   214.443  0.681344
   215.134  0.687407
   215.828  0.693525
   216.524  0.699697
   217.222  0.705924
   217.922  0.712172
   218.625  0.718394
   219.330  0.724671
   220.037  0.731002
   220.746  0.737389
   221.458  0.743752
   222.172  0.749995
   222.888  0.756290
   223.607  0.762638
   224.328  0.769039
   225.051  0.775494
   225.777  0.782004
   226.504  0.788568
   227.235  0.795187
   227.967  0.801862
   228.702  0.808593
   229.440  0.815381
   230.179  0.822225
   230.922  0.829128
   231.666  0.836088
   232.413  0.843106
   233.162  0.850183
   233.914  0.857319
   234.668  0.864516
   235.425  0.871772
   236.184  0.879091
   236.945  0.886470
   237.709  0.893912
   238.476  0.901416
   239.244  0.908983
   240.016  0.916613
   240.790  0.924306
   241.566  0.932064
   242.345  0.939887
   243.126  0.947775
   243.910  0.955928
   244.696  0.964447
   245.485  0.973043
   246.277  0.981714
   247.071  0.990463
   247.867  1.00009
   248.666  1.01095
   249.468  1.02193
   250.272  1.03303
   251.079  1.04424
   251.889  1.05558
   252.701  1.06704
   253.516  1.07862
   254.333  1.09033
   255.153  1.10217
   255.976  1.11414
   256.801  1.12623
   257.629  1.13846
   258.459  1.15082
   259.293  1.16332
   260.129  1.17595
   260.967  1.18872
   261.809  1.20162
   262.653  1.21467
   263.500  1.22786
   264.349  1.24119
   265.201  1.25466
   266.056  1.26828
   266.914  1.28205
   267.775  1.29597
   268.638  1.31004
   269.504  1.32426
   270.373  1.33864
   271.245  1.35318
   272.119  1.36787
   272.997  1.38272
   273.877  1.39773
   274.760  1.41291
   275.646  1.42825
   276.534  1.44376
   277.426  1.45943
   278.320  1.47528
   279.218  1.49129
   280.118  1.50748
   281.021  1.52385
   281.927  1.54039
   282.836  1.55712
   283.748  1.57403
   284.663  5.534906E-02
   285.580  5.574594E-02
   286.501  5.614563E-02
   287.425  5.654821E-02
   288.352  5.695366E-02
   289.281  5.736205E-02
   290.214  5.777332E-02
   291.150  5.818755E-02
   292.088  5.860480E-02
   293.030  5.902502E-02
   293.975  5.944825E-02
   294.922  5.987450E-02
   295.873  6.030384E-02
   296.827  6.073622E-02
   297.784  6.117174E-02
   298.744  6.161033E-02
   299.707  6.205211E-02
   300.674  6.249706E-02
   301.643  6.294527E-02
   302.616  6.339666E-02
   303.591  6.385131E-02
   304.570  6.430919E-02
   305.552  6.477031E-02
   306.537  6.523464E-02
   307.525  6.570233E-02
   308.517  6.617333E-02
   309.512  6.664773E-02
   310.509  6.712562E-02
   311.511  6.760693E-02
   312.515  6.809174E-02
   313.522  6.857996E-02
   314.533  6.907175E-02
   315.547  6.956702E-02
   316.565  7.006592E-02
   317.585  7.056833E-02
   318.609  7.107440E-02
   319.636  7.158405E-02
   320.667  7.209739E-02
   321.701  7.261436E-02
   322.738  7.313509E-02
   323.779  7.365949E-02
   324.822  7.418771E-02
   325.870  7.471958E-02
   326.920  7.525529E-02
   327.974  7.579479E-02
   329.032  7.633816E-02
   330.093  7.688548E-02
   331.157  7.743675E-02
   332.224  7.799206E-02
   333.296  7.855130E-02
   334.370  7.911460E-02
   335.448  7.968190E-02
   336.530  8.025334E-02
   337.615  8.082882E-02
   338.703  8.140849E-02
   339.795  8.199226E-02
   340.891  8.258028E-02
   341.990  8.317238E-02
   343.092  8.376870E-02
   344.198  8.436932E-02
   345.308  8.497422E-02
   346.421  8.558351E-02
   347.538  8.619718E-02
   348.659  8.681519E-02
   349.783  8.743764E-02
   350.911  8.806460E-02
   352.042  8.869600E-02
   353.177  8.933201E-02
   354.316  8.997252E-02
   355.458  9.061767E-02
   356.604  9.126744E-02
   357.754  9.192187E-02
   358.907  9.258094E-02
   360.064  9.324481E-02
   361.225  9.391339E-02
   362.390  9.458680E-02
   363.558  9.526499E-02
   364.730  9.594808E-02
   365.906  9.663612E-02
   367.086  9.732906E-02
   368.269  9.802701E-02
   369.457  9.872991E-02
   370.648  9.943788E-02
   371.843  0.100151
   373.042  0.100869
   374.244  0.101592
   375.451  0.102321
   376.662  0.103097
   377.876  0.103890
   379.094  0.104688
   380.316  0.105493
   381.543  0.106303
   382.773  0.107149
   384.007  0.108006
   385.245  0.108871
   386.487  0.109743
   387.733  0.110622
   388.983  0.111507
   390.237  0.112400
   391.495  0.113300
   392.758  0.114207
   394.024  0.115122
   395.294  0.116043
   396.569  0.116972
   397.847  0.117909
   399.130  0.118853
   400.417  0.119804
   401.708  0.120764
   403.003  0.121731
   404.302  0.122705
   405.606  0.123688
   406.913  0.124678
   408.225  0.125676
   409.541  0.126683
   410.862  0.127697
   412.186  0.128720
   413.515  0.129750
   414.848  0.130789
   416.186  0.131836
   417.528  0.132892
   418.874  0.133956
   420.224  0.135028
   421.579  0.136109
   422.938  0.137199
   424.302  0.138298
   425.670  0.139405
   427.042  0.140521
   428.419  0.141646
   429.800  0.142781
   431.186  0.143924
   432.576  0.145076
   433.971  0.146238
   435.370  0.147409
   436.774  0.148589
   438.182  0.149779
   439.595  0.150978
   441.012  0.152187
   442.434  0.153405
   443.860  0.154633
   445.291  0.155872
   446.727  0.157120
   448.167  0.158378
   449.612  0.159646
   451.062  0.160924
   452.516  0.162213
   453.975  0.163511
   455.438  0.164821
   456.907  0.166140
   458.380  0.167470
   459.858  0.168811
   461.340  0.170163
   462.828  0.171525
   464.320  0.172898
   465.817  0.174283
   467.319  0.175678
   468.825  0.177085
   470.337  0.178503
   471.853  0.179932
   473.375  0.181372
   474.901  0.182824
   476.432  0.184288
   477.968  0.185764
   479.509  0.187253
   481.055  0.188753
   482.606  0.190266
   484.162  0.191791
   485.723  0.193330
   487.289  0.194910
   488.860  0.196502
   490.436  0.198108
   492.017  0.199726
   493.603  0.201358
   495.195  0.203003
   496.791  0.204662
   498.393  0.206334
   500.000  0.208020
   500.694  0.208750
   501.388  0.209483
   502.084  0.210218
   502.780  0.210956
   503.478  0.211697
   504.176  0.212440
   504.876  0.213186
   505.576  0.213934
   506.277  0.214685
   506.980  0.215439
   507.683  0.216195
   508.387  0.216954
   509.093  0.217716
   509.799  0.218480
   510.506  0.219247
   511.214  0.220017
   511.923  0.220789
   512.634  0.221564
   513.345  0.222342
   514.057  0.223123
   514.770  0.223906
   515.484  0.224692
   516.199  0.225481
   516.915  0.226272
   517.632  0.227067
   518.351  0.227864
   519.070  0.228664
   519.790  0.229466
   520.511  0.230272
   521.233  0.231081
   521.956  0.231892
   522.680  0.232706
   523.405  0.233523
   524.131  0.234343
   524.858  0.235165
   525.586  0.235991
   526.316  0.236820
   527.046  0.237651
   527.777  0.238485
   528.509  0.239323
   529.242  0.240163
   529.976  0.241006
   530.712  0.241852
   531.448  0.242701
   532.185  0.243553
   532.923  0.244408
   533.663  0.245266
   534.403  0.246128
   535.144  0.246992
   535.887  0.247859
   536.630  0.248729
   537.375  0.249602
   538.120  0.250478
   538.867  0.251358
   539.614  0.252240
   540.363  0.253126
   541.112  0.254014
   541.863  0.254906
   542.615  0.255801
   543.367  0.256699
   544.121  0.257600
   544.876  0.258504
   545.632  0.259412
   546.389  0.260323
   547.147  0.261237
   547.906  0.262154
   548.666  0.263074
   549.427  0.263998
   550.189  0.264925
   550.953  0.265855
   551.717  0.266788
   552.482  0.267724
   553.249  0.268664
   554.016  0.269608
   554.785  0.270554
   555.554  0.271504
   556.325  0.272457
   557.097  0.273413
   557.870  0.274373
   558.644  0.275336
   559.419  0.276303
   560.195  0.277273
   560.972  0.278246
   561.750  0.279223
   562.529  0.280204
   563.310  0.281188
   564.091  0.282175
   564.874  0.283166
   565.657  0.284160
   566.442  0.285158
   567.228  0.286159
   568.015  0.287164
   568.803  0.288172
   569.592  0.289184
   570.382  0.290199
   571.173  0.291218
   571.966  0.292240
   572.759  0.293266
   573.554  0.294296
   574.349  0.295329
   575.146  0.296365
   575.944  0.297406
   576.743  0.298450
   577.543  0.299497
   578.344  0.300549
   579.146  0.301604
   579.950  0.302663
   580.754  0.303725
   581.560  0.304791
   582.367  0.305861
   583.175  0.306935
   583.984  0.308012
   584.794  0.309093
   585.605  0.310178
   586.417  0.311267
   587.231  0.312360
   588.046  0.313456
   588.861  0.314557
   589.678  0.315661
   590.496  0.316769
   591.315  0.317881
   592.136  0.318997
   592.957  0.320117
   593.780  0.321241
   594.604  0.322369
   595.428  0.323501
   596.254  0.324636
   597.082  0.325776
   597.910  0.326920
   598.739  0.328068
   599.570  0.329219
   600.402  0.330375
   601.235  0.331535
   602.069  0.332699
   602.904  0.333867
   603.740  0.335040
   604.578  0.336216
   605.417  0.337396
   606.256  0.338581
   607.097  0.339770
   607.940  0.340962
   608.783  0.342159
   609.628  0.343361
   610.473  0.344566
   611.320  0.345775
   612.168  0.346989
   613.017  0.348207
   613.868  0.349429
   614.719  0.350656
   615.572  0.351887
   616.426  0.353122
   617.281  0.354362
   618.138  0.355606
   618.995  0.356854
   619.854  0.358107
   620.714  0.359365
   621.575  0.360626
   622.437  0.361893
   623.301  0.363163
   624.165  0.364438
   625.031  0.365718
   625.898  0.367002
   626.767  0.368290
   627.636  0.369583
   628.507  0.370881
   629.379  0.372183
   630.252  0.373489
   631.126  0.374800
   632.002  0.376116
   632.878  0.377436
   633.756  0.378761
   634.635  0.380091
   635.516  0.381425
   636.397  0.382764
   637.280  0.384108
   638.164  0.385456
   639.050  0.386810
   639.936  0.388168
   640.824  0.389531
   641.713  0.390898
   642.603  0.392271
   643.495  0.393648
   644.387  0.395030
   645.281  0.396417
   646.176  0.397809
   647.073  0.399205
   647.970  0.400607
   648.869  0.402013
   649.770  0.403425
   650.671  0.404841
   651.574  0.406262
   652.477  0.407688
   653.383  0.409119
   654.289  0.410555
   655.197  0.411996
   656.106  0.413442
   657.016  0.414894
   657.927  0.416350
   658.840  0.417812
   659.754  0.419279
   660.669  0.420751
   661.586  0.422228
   662.504  0.423711
   663.423  0.425198
   664.343  0.426691
   665.265  0.428189
   666.187  0.429693
   667.112  0.431201
   668.037  0.432715
   668.964  0.434235
   669.892  0.435738
   670.821  0.437231
   671.752  0.438729
   672.684  0.440232
   673.617  0.441740
   674.551  0.443253
   675.487  0.444771
   676.424  0.446295
   677.362  0.447823
   678.302  0.449357
   679.243  0.450897
   680.185  0.452441
   681.129  0.453953
   682.074  0.455469
   683.020  0.456991
   683.968  0.458517
   684.917  0.460048
   685.867  0.461585
   686.818  0.463127
   687.771  0.464674
   688.725  0.466226
   689.680  0.467783
   690.637  0.469346
   691.595  0.470908
   692.555  0.472467
   693.516  0.474032
   694.478  0.475601
   695.441  0.477176
   696.406  0.478756
   697.372  0.480342
   698.339  0.481932
   699.308  0.483528
   700.278  0.485129
   701.250  0.486735
   702.222  0.488347
   703.197  0.490080
   704.172  0.491841
   705.149  0.493608
   706.127  0.495382
   707.107  0.497161
   708.088  0.498948
   709.070  0.500740
   710.054  0.502539
   711.039  0.504344
   712.025  0.506157
   713.013  0.507975
   714.002  0.509827
   714.992  0.511757
   715.984  0.513696
   716.978  0.515641
   717.972  0.517594
   718.968  0.519555
   719.966  0.521522
   720.964  0.523497
   721.965  0.525480
   722.966  0.527470
   723.969  0.529468
   724.973  0.531473
   725.979  0.533486
   726.986  0.535506
   727.995  0.537534
   729.005  0.539569
   730.016  0.541612
   731.029  0.543663
   732.043  0.545721
   733.058  0.547788
   734.075  0.549862
   735.094  0.551944
   736.113  0.554034
   737.135  0.556132
   738.157  0.558238
   739.181  0.560351
   740.207  0.562473
   741.234  0.564603
   742.262  0.566741
   743.292  0.568887
   744.323  0.571040
   745.355  0.573203
   746.389  0.575373
   747.425  0.577552
   748.461  0.579738
   749.500  0.581934
   750.540  0.584137
   751.581  0.586349
   752.623  0.588569
   753.667  0.590798
   754.713  0.593035
   755.760  0.595281
   756.808  0.597535
   757.858  0.599798
   758.910  0.602069
   759.962  0.604348
   761.017  0.606637
   762.072  0.608935
   763.130  0.611241
   764.188  0.613557
   765.248  0.615880
   766.310  0.618213
   767.373  0.620554
   768.438  0.622905
   769.504  0.625265
   770.571  0.627633
   771.640  0.630010
   772.711  0.632396
   773.782  0.634792
   774.856  0.637197
   775.931  0.639612
   777.007  0.642036
   778.085  0.644469
   779.165  0.646911
   780.245  0.649363
   781.328  0.651823
   782.412  0.654293
   783.497  0.656773
   784.584  0.659262
   785.673  0.661760
   786.762  0.664268
   787.854  0.666786
   788.947  0.669314
   790.041  0.671852
   791.137  0.674398
   792.235  0.676955
   793.334  0.679522
   794.434  0.682097
   795.536  0.684683
   796.640  0.687279
   797.745  0.689884
   798.852  0.692500
   799.960  0.695126
   801.070  0.697762
   802.181  0.700407
   803.294  0.703063
   804.408  0.705729
   805.524  0.708405
   806.642  0.711091
   807.761  0.713787
   808.881  0.716494
   810.003  0.719211
   811.127  0.721938
   812.252  0.724675
   813.379  0.727422
   814.508  0.730180
   815.638  0.732948
   816.769  0.735726
   817.902  0.738516
   819.037  0.741315
   820.173  0.744126
   821.311  0.746947
   822.450  0.749779
   823.591  0.752621
   824.734  0.755474
   825.878  0.758338
   827.023  0.761212
   828.171  0.764097
   829.320  0.766992
   830.470  0.769900
   831.622  0.772818
   832.776  0.775747
   833.931  0.778687
   835.088  0.781639
   836.246  0.784601
   837.406  0.787575
   838.568  0.790565
   839.732  0.793570
   840.896  0.796587
   842.063  0.799615
   843.231  0.802655
   844.401  0.805706
   845.572  0.808769
   846.745  0.811843
   847.920  0.814930
   849.096  0.818028
   850.274  0.821137
   851.454  0.824259
   852.635  0.827403
   853.818  0.830559
   855.002  0.833727
   856.188  0.836908
   857.376  0.840100
   858.565  0.843305
   859.756  0.846522
   860.949  0.849751
   862.144  0.852992
   863.340  0.856246
   864.537  0.859512
   865.737  0.862795
   866.938  0.866096
   868.140  0.869410
   869.345  0.872737
   870.551  0.876076
   871.758  0.879428
   872.968  0.882792
   874.179  0.886171
   875.391  0.889561
   876.606  0.892964
   877.822  0.896381
   879.040  0.899811
   880.259  0.903253
   881.480  0.906708
   882.703  0.910176
   883.928  0.913657
   885.154  0.917152
   886.382  0.920660
   887.611  0.924182
   888.843  0.927717
   890.076  0.931265
   891.310  0.934827
   892.547  0.938404
   893.785  0.941993
   895.025  0.945596
   896.267  0.949213
   897.510  0.952843
   898.755  0.956488
   900.002  0.960146
   901.250  0.963819
