# progression for http://henke.lbl.gov/optical_constants/atten2.html
# 100eV-500eV always in 500 steps, 500-1000eV, 1000-2000, 2000-4000, 4000-8000, 8000-16000, 16000-30000
# Si Density=2.33, Angle=90.deg
# Photon Energy (eV), Atten Length (microns)
   100.000  0.134288
   100.322  0.102227
   100.646  6.718048E-02
   100.970  5.639952E-02
   101.296  5.595573E-02
   101.622  6.139444E-02
   101.950  7.143288E-02
   102.279  7.798705E-02
   102.609  7.539479E-02
   102.939  8.077289E-02
   103.271  8.151667E-02
   103.604  8.850766E-02
   103.938  8.921823E-02
   104.273  9.122843E-02
   104.610  9.072325E-02
   104.947  8.981051E-02
   105.285  8.733296E-02
   105.625  8.261237E-02
   105.965  7.567302E-02
   106.307  7.312898E-02
   106.649  7.063267E-02
   106.993  6.852648E-02
   107.338  6.749663E-02
   107.684  6.606895E-02
   108.032  6.469481E-02
   108.380  6.370270E-02
   108.729  6.319283E-02
   109.080  6.296343E-02
   109.431  6.280847E-02
   109.784  6.187267E-02
   110.138  6.093416E-02
   110.493  5.993696E-02
   110.850  5.875200E-02
   111.207  5.768209E-02
   111.566  5.675231E-02
   111.925  5.607017E-02
   112.286  5.539611E-02
   112.648  5.479659E-02
   113.011  5.429853E-02
   113.376  5.380508E-02
   113.741  5.331603E-02
   114.108  5.271480E-02
   114.476  5.184378E-02
   114.845  5.091982E-02
   115.215  4.996042E-02
   115.587  4.897338E-02
   115.959  4.796535E-02
   116.333  4.697823E-02
   116.708  4.601143E-02
   117.084  4.511134E-02
   117.462  4.438900E-02
   117.841  4.375303E-02
   118.221  4.331914E-02
   118.602  4.297617E-02
   118.984  4.251028E-02
   119.368  4.248175E-02
   119.753  4.232070E-02
   120.139  4.208122E-02
   120.526  4.184315E-02
   120.915  4.160637E-02
   121.304  4.137098E-02
   121.695  4.117144E-02
   122.088  4.102958E-02
   122.481  4.096367E-02
   122.876  4.089788E-02
   123.272  4.083217E-02
   123.670  4.080648E-02
   124.069  4.080237E-02
   124.469  4.064468E-02
   124.870  4.071802E-02
   125.273  4.070268E-02
   125.676  4.063563E-02
   126.082  4.056865E-02
   126.488  4.050181E-02
   126.896  4.043505E-02
   127.305  4.040182E-02
   127.715  4.031382E-02
   128.127  4.016626E-02
   128.540  4.002161E-02
   128.955  3.989979E-02
   129.370  3.977830E-02
   129.788  3.957846E-02
   130.206  3.937885E-02
   130.626  3.921584E-02
   131.047  3.905348E-02
   131.469  3.889181E-02
   131.893  3.887184E-02
   132.319  3.886282E-02
   132.745  3.885383E-02
   133.173  3.893297E-02
   133.603  3.919476E-02
   134.033  3.962603E-02
   134.465  4.006200E-02
   134.899  4.062858E-02
   135.334  4.121422E-02
   135.770  4.180837E-02
   136.208  4.233047E-02
   136.647  4.274374E-02
   137.088  4.313345E-02
   137.530  4.359335E-02
   137.973  4.366654E-02
   138.418  4.373983E-02
   138.864  4.381326E-02
   139.312  4.388682E-02
   139.761  4.393059E-02
   140.212  4.389239E-02
   140.664  4.386439E-02
   141.117  4.397523E-02
   141.572  4.410685E-02
   142.028  4.433934E-02
   142.486  4.443732E-02
   142.946  4.462817E-02
   143.407  4.448664E-02
   143.869  4.430103E-02
   144.333  4.419945E-02
   144.798  4.413097E-02
   145.265  4.398350E-02
   145.733  4.390342E-02
   146.203  4.387958E-02
   146.675  4.381159E-02
   147.147  4.379500E-02
   147.622  4.375109E-02
   148.098  4.382136E-02
   148.575  4.382314E-02
   149.054  4.394875E-02
   149.535  4.408175E-02
   150.017  4.429621E-02
   150.501  4.425695E-02
   150.986  4.393509E-02
   151.473  4.341082E-02
   151.961  4.305986E-02
   152.451  4.306413E-02
   152.942  4.353448E-02
   153.436  4.405922E-02
   153.930  4.478470E-02
   154.427  4.555194E-02
   154.924  4.599195E-02
   155.424  4.619727E-02
   155.925  4.624871E-02
   156.428  4.608783E-02
   156.932  4.605293E-02
   157.438  4.604466E-02
   157.946  4.587434E-02
   158.455  4.545848E-02
   158.966  4.554385E-02
   159.478  4.545404E-02
   159.992  4.534813E-02
   160.508  4.513549E-02
   161.026  4.492219E-02
   161.545  4.470994E-02
   162.066  4.449865E-02
   162.588  4.429899E-02
   163.112  4.415213E-02
   163.638  4.402495E-02
   164.166  4.395176E-02
   164.695  4.393114E-02
   165.226  4.400054E-02
   165.759  4.404341E-02
   166.293  4.405808E-02
   166.829  4.426933E-02
   167.367  4.410898E-02
   167.907  4.406431E-02
   168.448  4.413268E-02
   168.991  4.420113E-02
   169.536  4.440998E-02
   170.083  4.464945E-02
   170.631  4.504487E-02
   171.181  4.544383E-02
   171.733  4.615242E-02
   172.287  4.681325E-02
   172.842  4.728906E-02
   173.399  4.764801E-02
   173.959  4.880078E-02
   174.519  4.940222E-02
   175.082  5.031563E-02
   175.646  5.092478E-02
   176.213  5.159627E-02
   176.781  5.226227E-02
   177.351  5.269020E-02
   177.923  5.303602E-02
   178.496  5.372939E-02
   179.072  5.408167E-02
   179.649  5.442432E-02
   180.228  5.439376E-02
   180.809  5.465825E-02
   181.392  5.492400E-02
   181.977  5.519107E-02
   182.564  5.545943E-02
   183.152  5.572908E-02
   183.743  5.600006E-02
   184.335  5.627236E-02
   184.930  5.654596E-02
   185.526  5.682090E-02
   186.124  5.709844E-02
   186.724  5.737895E-02
   187.326  5.766081E-02
   187.930  5.794408E-02
   188.536  5.822873E-02
   189.144  5.852054E-02
   189.754  5.882075E-02
   190.365  5.912248E-02
   190.979  5.942577E-02
   191.595  5.973059E-02
   192.213  6.003698E-02
   192.832  6.034489E-02
   193.454  6.065440E-02
   194.078  6.096546E-02
   194.703  6.127815E-02
   195.331  6.159244E-02
   195.961  6.190838E-02
   196.593  6.222595E-02
   197.227  6.254514E-02
   197.862  6.286598E-02
   198.500  6.318843E-02
   199.140  6.351256E-02
   199.782  6.383834E-02
   200.426  6.416581E-02
   201.073  6.449493E-02
   201.721  6.481686E-02
   202.371  6.513207E-02
   203.024  6.544883E-02
   203.678  6.576711E-02
   204.335  6.608699E-02
   204.994  6.640272E-02
   205.655  6.671505E-02
   206.318  6.702884E-02
   206.983  6.734408E-02
   207.650  6.766085E-02
   208.320  6.797908E-02
   208.991  6.829879E-02
   209.665  6.862000E-02
   210.341  6.894274E-02
   211.019  6.926698E-02
   211.700  6.959277E-02
   212.382  6.992009E-02
   213.067  7.024895E-02
   213.754  7.057938E-02
   214.443  7.091133E-02
   215.134  7.124487E-02
   215.828  7.157999E-02
   216.524  7.191665E-02
   217.222  7.225493E-02
   217.922  7.259478E-02
   218.625  7.294426E-02
   219.330  7.330088E-02
   220.037  7.365923E-02
   220.746  7.401936E-02
   221.458  7.438122E-02
   222.172  7.479034E-02
   222.888  7.523076E-02
   223.607  7.567380E-02
   224.328  7.611942E-02
   225.051  7.656772E-02
   225.777  7.701863E-02
   226.504  7.747224E-02
   227.235  7.792850E-02
   227.967  7.838748E-02
   228.702  7.884912E-02
   229.440  7.931354E-02
   230.179  7.978067E-02
   230.922  8.025055E-02
   231.666  8.072319E-02
   232.413  8.119860E-02
   233.162  8.167688E-02
   233.914  8.215789E-02
   234.668  8.264179E-02
   235.425  8.312847E-02
   236.184  8.361808E-02
   236.945  8.411050E-02
   237.709  8.460582E-02
   238.476  8.510402E-02
   239.244  8.560521E-02
   240.016  8.610930E-02
   240.790  8.661640E-02
   241.566  8.712652E-02
   242.345  8.763964E-02
   243.126  8.815574E-02
   243.910  8.867493E-02
   244.696  8.919720E-02
   245.485  8.972257E-02
   246.277  9.025098E-02
   247.071  9.078252E-02
   247.867  9.131722E-02
   248.666  9.188478E-02
   249.468  9.246757E-02
   250.272  9.305403E-02
   251.079  9.364424E-02
   251.889  9.423815E-02
   252.701  9.484100E-02
   253.516  9.544947E-02
   254.333  9.606191E-02
   255.153  9.667819E-02
   255.976  9.729853E-02
   256.801  9.792282E-02
   257.629  9.855114E-02
   258.459  9.918357E-02
   259.293  9.982002E-02
   260.129  0.100461
   260.967  0.101105
   261.809  0.101754
   262.653  0.102407
   263.500  0.103064
   264.349  0.103725
   265.201  0.104391
   266.056  0.105060
   266.914  0.105735
   267.775  0.106413
   268.638  0.107096
   269.504  0.107783
   270.373  0.108475
   271.245  0.109171
   272.119  0.109871
   272.997  0.110576
   273.877  0.111286
   274.760  0.112000
   275.646  0.112718
   276.534  0.113442
   277.426  0.114170
   278.320  0.114902
   279.218  0.115639
   280.118  0.116381
   281.021  0.117128
   281.927  0.117880
   282.836  0.118636
   283.748  0.119397
   284.663  0.120163
   285.580  0.120934
   286.501  0.121710
   287.425  0.122491
   288.352  0.123277
   289.281  0.124068
   290.214  0.124864
   291.150  0.125665
   292.088  0.126472
   293.030  0.127283
   293.975  0.128100
   294.922  0.128922
   295.873  0.129749
   296.827  0.130602
   297.784  0.131463
   298.744  0.132330
   299.707  0.133202
   300.674  0.134080
   301.643  0.134982
   302.616  0.135891
   303.591  0.136806
   304.570  0.137727
   305.552  0.138655
   306.537  0.139589
   307.525  0.140529
   308.517  0.141476
   309.512  0.142428
   310.509  0.143388
   311.511  0.144354
   312.515  0.145326
   313.522  0.146305
   314.533  0.147290
   315.547  0.148282
   316.565  0.149281
   317.585  0.150286
   318.609  0.151298
   319.636  0.152318
   320.667  0.153343
   321.701  0.154376
   322.738  0.155416
   323.779  0.156462
   324.822  0.157516
   325.870  0.158577
   326.920  0.159645
   327.974  0.160720
   329.032  0.161803
   330.093  0.162893
   331.157  0.163990
   332.224  0.165094
   333.296  0.166206
   334.370  0.167326
   335.448  0.168453
   336.530  0.169587
   337.615  0.170729
   338.703  0.171879
   339.795  0.173037
   340.891  0.174202
   341.990  0.175376
   343.092  0.176557
   344.198  0.177746
   345.308  0.178943
   346.421  0.180148
   347.538  0.181362
   348.659  0.182583
   349.783  0.183813
   350.911  0.185051
   352.042  0.186297
   353.177  0.187552
   354.316  0.188815
   355.458  0.190087
   356.604  0.191367
   357.754  0.192656
   358.907  0.193954
   360.064  0.195260
   361.225  0.196575
   362.390  0.197899
   363.558  0.199232
   364.730  0.200588
   365.906  0.202098
   367.086  0.203619
   368.269  0.205152
   369.457  0.206696
   370.648  0.208257
   371.843  0.209868
   373.042  0.211492
   374.244  0.213129
   375.451  0.214778
   376.662  0.216440
   377.876  0.218115
   379.094  0.219803
   380.316  0.221503
   381.543  0.223217
   382.773  0.224945
   384.007  0.226685
   385.245  0.228439
   386.487  0.230207
   387.733  0.231988
   388.983  0.233783
   390.237  0.235592
   391.495  0.237416
   392.758  0.239253
   394.024  0.241104
   395.294  0.242970
   396.569  0.244850
   397.847  0.246745
   399.130  0.248655
   400.417  0.250579
   401.708  0.252518
   403.003  0.254472
   404.302  0.256441
   405.606  0.258426
   406.913  0.260426
   408.225  0.262441
   409.541  0.264472
   410.862  0.266518
   412.186  0.268581
   413.515  0.270659
   414.848  0.272753
   416.186  0.274864
   417.528  0.276991
   418.874  0.279135
   420.224  0.281295
   421.579  0.283472
   422.938  0.285665
   424.302  0.287876
   425.670  0.290103
   427.042  0.292348
   428.419  0.294611
   429.800  0.296890
   431.186  0.299188
   432.576  0.301503
   433.971  0.303836
   435.370  0.306187
   436.774  0.308556
   438.182  0.310944
   439.595  0.313350
   441.012  0.315775
   442.434  0.318219
   443.860  0.320681
   445.291  0.323163
   446.727  0.325663
   448.167  0.328184
   449.612  0.330723
   451.062  0.333283
   452.516  0.335861
   453.975  0.338461
   455.438  0.341080
   456.907  0.343727
   458.380  0.346412
   459.858  0.349118
   461.340  0.351846
   462.828  0.354594
   464.320  0.357398
   465.817  0.360297
   467.319  0.363219
   468.825  0.366165
   470.337  0.369134
   471.853  0.372128
   473.375  0.375146
   474.901  0.378188
   476.432  0.381255
   477.968  0.384347
   479.509  0.387464
   481.055  0.390606
   482.606  0.393774
   484.162  0.396968
   485.723  0.400187
   487.289  0.403433
   488.860  0.406704
   490.436  0.410002
   492.017  0.413327
   493.603  0.416679
   495.195  0.420058
   496.791  0.423465
   498.393  0.426899
   500.000  0.430361
   500.694  0.431861
   501.388  0.433366
   502.084  0.434876
   502.780  0.436392
   503.478  0.437912
   504.176  0.439439
   504.876  0.440970
   505.576  0.442507
   506.277  0.444049
   506.980  0.445597
   507.683  0.447149
   508.387  0.448708
   509.093  0.450271
   509.799  0.451841
   510.506  0.453415
   511.214  0.454995
   511.923  0.456580
   512.634  0.458172
   513.345  0.459768
   514.057  0.461370
   514.770  0.462977
   515.484  0.464591
   516.199  0.466209
   516.915  0.467834
   517.632  0.469464
   518.351  0.471100
   519.070  0.472741
   519.790  0.474389
   520.511  0.476042
   521.233  0.477701
   521.956  0.479365
   522.680  0.481036
   523.405  0.482713
   524.131  0.484395
   524.858  0.486083
   525.586  0.487777
   526.316  0.489477
   527.046  0.491182
   527.777  0.492894
   528.509  0.494612
   529.242  0.496335
   529.976  0.498065
   530.712  0.499800
   531.448  0.501542
   532.185  0.503290
   532.923  0.505043
   533.663  0.506803
   534.403  0.508569
   535.144  0.510341
   535.887  0.512120
   536.630  0.513905
   537.375  0.515695
   538.120  0.517492
   538.867  0.519296
   539.614  0.521105
   540.363  0.522921
   541.112  0.524743
   541.863  0.526572
   542.615  0.528407
   543.367  0.530248
   544.121  0.532096
   544.876  0.533950
   545.632  0.535811
   546.389  0.537678
   547.147  0.539552
   547.906  0.541432
   548.666  0.543319
   549.427  0.545212
   550.189  0.547113
   550.953  0.549019
   551.717  0.550932
   552.482  0.552852
   553.249  0.554778
   554.016  0.556712
   554.785  0.558652
   555.554  0.560598
   556.325  0.562552
   557.097  0.564512
   557.870  0.566479
   558.644  0.568453
   559.419  0.570435
   560.195  0.572422
   560.972  0.574417
   561.750  0.576419
   562.529  0.578428
   563.310  0.580443
   564.091  0.582466
   564.874  0.584496
   565.657  0.586533
   566.442  0.588576
   567.228  0.590627
   568.015  0.592686
   568.803  0.594751
   569.592  0.596824
   570.382  0.598903
   571.173  0.600991
   571.966  0.603085
   572.759  0.605186
   573.554  0.607295
   574.349  0.609412
   575.146  0.611535
   575.944  0.613666
   576.743  0.615805
   577.543  0.617950
   578.344  0.620104
   579.146  0.622265
   579.950  0.624433
   580.754  0.626618
   581.560  0.628882
   582.367  0.631155
   583.175  0.633436
   583.984  0.635725
   584.794  0.638022
   585.605  0.640328
   586.417  0.642642
   587.231  0.644964
   588.046  0.647295
   588.861  0.649634
   589.678  0.651982
   590.496  0.654367
   591.315  0.656785
   592.136  0.659213
   592.957  0.661649
   593.780  0.664094
   594.604  0.666549
   595.428  0.669012
   596.254  0.671485
   597.082  0.673966
   597.910  0.676457
   598.739  0.678957
   599.570  0.681466
   600.402  0.683985
   601.235  0.686513
   602.069  0.689051
   602.904  0.691597
   603.740  0.694154
   604.578  0.696719
   605.417  0.699294
   606.256  0.701878
   607.097  0.704473
   607.940  0.707077
   608.783  0.709690
   609.628  0.712313
   610.473  0.714946
   611.320  0.717588
   612.168  0.720240
   613.017  0.722902
   613.868  0.725574
   614.719  0.728256
   615.572  0.730947
   616.426  0.733649
   617.281  0.736360
   618.138  0.739082
   618.995  0.741813
   619.854  0.744555
   620.714  0.747307
   621.575  0.750069
   622.437  0.752841
   623.301  0.755623
   624.165  0.758416
   625.031  0.761218
   625.898  0.764032
   626.767  0.766856
   627.636  0.769690
   628.507  0.772534
   629.379  0.775390
   630.252  0.778256
   631.126  0.781132
   632.002  0.784019
   632.878  0.786917
   633.756  0.789826
   634.635  0.792745
   635.516  0.795675
   636.397  0.798616
   637.280  0.801568
   638.164  0.804530
   639.050  0.807504
   639.936  0.810488
   640.824  0.813483
   641.713  0.816489
   642.603  0.819507
   643.495  0.822536
   644.387  0.825576
   645.281  0.828627
   646.176  0.831689
   647.073  0.834762
   647.970  0.837847
   648.869  0.840944
   649.770  0.844052
   650.671  0.847171
   651.574  0.850302
   652.477  0.853445
   653.383  0.856599
   654.289  0.859765
   655.197  0.862943
   656.106  0.866133
   657.016  0.869334
   657.927  0.872546
   658.840  0.875772
   659.754  0.879008
   660.669  0.882257
   661.586  0.885518
   662.504  0.888792
   663.423  0.892077
   664.343  0.895374
   665.265  0.898683
   666.187  0.902005
   667.112  0.905339
   668.037  0.908685
   668.964  0.912044
   669.892  0.915415
   670.821  0.918798
   671.752  0.922194
   672.684  0.925602
   673.617  0.929022
   674.551  0.932456
   675.487  0.935901
   676.424  0.939360
   677.362  0.942832
   678.302  0.946316
   679.243  0.949813
   680.185  0.953323
   681.129  0.956846
   682.074  0.960382
   683.020  0.963932
   683.968  0.967495
   684.917  0.971070
   685.867  0.974659
   686.818  0.978262
   687.771  0.981877
   688.725  0.985506
   689.680  0.989149
   690.637  0.992804
   691.595  0.996473
   692.555  1.00016
   693.516  1.00373
   694.478  1.00728
   695.441  1.01085
   696.406  1.01443
   697.372  1.01802
   698.339  1.02163
   699.308  1.02524
   700.278  1.02887
   701.250  1.03252
   702.222  1.03617
   703.197  1.03984
   704.172  1.04350
   705.149  1.04712
   706.127  1.05074
   707.107  1.05438
   708.088  1.05804
   709.070  1.06170
   710.054  1.06538
   711.039  1.06907
   712.025  1.07277
   713.013  1.07648
   714.002  1.08021
   714.992  1.08395
   715.984  1.08771
   716.978  1.09147
   717.972  1.09526
   718.968  1.09905
   719.966  1.10286
   720.964  1.10668
   721.965  1.11051
   722.966  1.11436
   723.969  1.11822
   724.973  1.12209
   725.979  1.12598
   726.986  1.12988
   727.995  1.13379
   729.005  1.13771
   730.016  1.14166
   731.029  1.14561
   732.043  1.14958
   733.058  1.15356
   734.075  1.15755
   735.094  1.16156
   736.113  1.16558
   737.135  1.16962
   738.157  1.17367
   739.181  1.17774
   740.207  1.18181
   741.234  1.18591
   742.262  1.19002
   743.292  1.19414
   744.323  1.19827
   745.355  1.20242
   746.389  1.20659
   747.425  1.21077
   748.461  1.21496
   749.500  1.21917
   750.540  1.22339
   751.581  1.22763
   752.623  1.23188
   753.667  1.23615
   754.713  1.24043
   755.760  1.24472
   756.808  1.24904
   757.858  1.25336
   758.910  1.25770
   759.962  1.26206
   761.017  1.26643
   762.072  1.27082
   763.130  1.27522
   764.188  1.27964
   765.248  1.28407
   766.310  1.28852
   767.373  1.29298
   768.438  1.29746
   769.504  1.30195
   770.571  1.30646
   771.640  1.31099
   772.711  1.31553
   773.782  1.32008
   774.856  1.32466
   775.931  1.32924
   777.007  1.33385
   778.085  1.33847
   779.165  1.34310
   780.245  1.34775
   781.328  1.35242
   782.412  1.35711
   783.497  1.36181
   784.584  1.36652
   785.673  1.37125
   786.762  1.37600
   787.854  1.38079
   788.947  1.38567
   790.041  1.39058
   791.137  1.39549
   792.235  1.40043
   793.334  1.40539
   794.434  1.41036
   795.536  1.41534
   796.640  1.42035
   797.745  1.42538
   798.852  1.43042
   799.960  1.43548
   801.070  1.44073
   802.181  1.44610
   803.294  1.45149
   804.408  1.45690
   805.524  1.46233
   806.642  1.46778
   807.761  1.47325
   808.881  1.47875
   810.003  1.48426
   811.127  1.48979
   812.252  1.49534
   813.379  1.50092
   814.508  1.50651
   815.638  1.51213
   816.769  1.51776
   817.902  1.52342
   819.037  1.52910
   820.173  1.53480
   821.311  1.54052
   822.450  1.54626
   823.591  1.55202
   824.734  1.55781
   825.878  1.56362
   827.023  1.56944
   828.171  1.57530
   829.320  1.58117
   830.470  1.58706
   831.622  1.59298
   832.776  1.59892
   833.931  1.60488
   835.088  1.61086
   836.246  1.61687
   837.406  1.62290
   838.568  1.62895
   839.732  1.63502
   840.896  1.64111
   842.063  1.64723
   843.231  1.65337
   844.401  1.65954
   845.572  1.66572
   846.745  1.67193
   847.920  1.67816
   849.096  1.68442
   850.274  1.69070
   851.454  1.69700
   852.635  1.70332
   853.818  1.70967
   855.002  1.71605
   856.188  1.72244
   857.376  1.72886
   858.565  1.73531
