# progression for http://henke.lbl.gov/optical_constants/atten2.html
# 100eV-500eV always in 500 steps, 500-1000eV, 1000-2000, 2000-4000, 4000-8000, 8000-16000, 16000-30000
# Si3N4 Density=3.44, Angle=90.deg
# Photon Energy (eV), Atten Length (microns)
   100.000  7.945389E-02
   100.322  6.842058E-02
   100.646  5.235750E-02
   100.970  4.633647E-02
   101.296  4.615824E-02
   101.622  4.945675E-02
   101.950  5.509892E-02
   102.279  5.859804E-02
   102.609  5.741758E-02
   102.939  6.026478E-02
   103.271  6.077614E-02
   103.604  6.428624E-02
   103.938  6.478050E-02
   104.273  6.588002E-02
   104.610  6.581169E-02
   104.947  6.554753E-02
   105.285  6.452288E-02
   105.625  6.234023E-02
   105.965  5.886502E-02
   106.307  5.760819E-02
   106.649  5.633669E-02
   106.993  5.524932E-02
   107.338  5.476166E-02
   107.684  5.402827E-02
   108.032  5.331021E-02
   108.380  5.280923E-02
   108.729  5.259523E-02
   109.080  5.255073E-02
   109.431  5.255078E-02
   109.784  5.206103E-02
   110.138  5.156051E-02
   110.493  5.101321E-02
   110.850  5.033381E-02
   111.207  4.971722E-02
   111.566  4.918284E-02
   111.925  4.880596E-02
   112.286  4.842877E-02
   112.648  4.809681E-02
   113.011  4.782987E-02
   113.376  4.756234E-02
   113.741  4.729415E-02
   114.108  4.694343E-02
   114.476  4.639650E-02
   114.845  4.580335E-02
   115.215  4.517559E-02
   115.587  4.451814E-02
   115.959  4.383526E-02
   116.333  4.315783E-02
   116.708  4.248591E-02
   117.084  4.185541E-02
   117.462  4.135324E-02
   117.841  4.091198E-02
   118.221  4.062334E-02
   118.602  4.040305E-02
   118.984  4.008369E-02
   119.368  4.010737E-02
   119.753  4.002566E-02
   120.139  3.988054E-02
   120.526  3.973514E-02
   120.915  3.958936E-02
   121.304  3.944333E-02
   121.695  3.932493E-02
   122.088  3.925221E-02
   122.481  3.924048E-02
   122.876  3.922841E-02
   123.272  3.921595E-02
   123.670  3.923583E-02
   124.069  3.927317E-02
   124.469  3.918375E-02
   124.870  3.928429E-02
   125.273  3.931153E-02
   125.676  3.929563E-02
   126.082  3.927935E-02
   126.488  3.926274E-02
   126.896  3.924575E-02
   127.305  3.925640E-02
   127.715  3.922078E-02
   128.127  3.913450E-02
   128.540  3.905000E-02
   128.955  3.898409E-02
   129.370  3.891779E-02
   129.788  3.878413E-02
   130.206  3.864962E-02
   130.626  3.854614E-02
   131.047  3.844254E-02
   131.469  3.833869E-02
   131.893  3.835637E-02
   132.319  3.838328E-02
   132.745  3.841002E-02
   133.173  3.851304E-02
   133.603  3.877470E-02
   134.033  3.918362E-02
   134.465  3.959675E-02
   134.899  4.012303E-02
   135.334  4.066563E-02
   135.770  4.121540E-02
   136.208  4.170302E-02
   136.647  4.209709E-02
   137.088  4.247113E-02
   137.530  4.290573E-02
   137.973  4.300823E-02
   138.418  4.311082E-02
   138.864  4.321351E-02
   139.312  4.331630E-02
   139.761  4.339330E-02
   140.212  4.339917E-02
   140.664  4.341356E-02
   141.117  4.354844E-02
   141.572  4.370148E-02
   142.028  4.394249E-02
   142.486  4.406650E-02
   142.946  4.427161E-02
   143.407  4.418641E-02
   143.869  4.406183E-02
   144.333  4.401023E-02
   144.798  4.398722E-02
   145.265  4.389405E-02
   145.733  4.385976E-02
   146.203  4.387487E-02
   146.675  4.385048E-02
   147.147  4.387143E-02
   147.622  4.386777E-02
   148.098  4.396572E-02
   148.575  4.400241E-02
   149.054  4.414977E-02
   149.535  4.430383E-02
   150.017  4.453100E-02
   150.501  4.453075E-02
   150.986  4.427588E-02
   151.473  4.383653E-02
   151.961  4.355163E-02
   152.451  4.358803E-02
   152.942  4.404783E-02
   153.436  4.455708E-02
   153.930  4.524819E-02
   154.427  4.597661E-02
   154.924  4.640923E-02
   155.424  4.663016E-02
   155.925  4.671214E-02
   156.428  4.660164E-02
   156.932  4.660482E-02
   157.438  4.663193E-02
   157.946  4.651115E-02
   158.455  4.616554E-02
   158.966  4.627733E-02
   159.478  4.622850E-02
   159.992  4.616442E-02
   160.508  4.600152E-02
   161.026  4.583871E-02
   161.545  4.567591E-02
   162.066  4.551304E-02
   162.588  4.536003E-02
   163.112  4.525539E-02
   163.638  4.517014E-02
   164.166  4.513477E-02
   164.695  4.514818E-02
   165.226  4.524576E-02
   165.759  4.531837E-02
   166.293  4.536439E-02
   166.829  4.559519E-02
   167.367  4.547619E-02
   167.907  4.546569E-02
   168.448  4.556170E-02
   168.991  4.565774E-02
   169.536  4.588666E-02
   170.083  4.614477E-02
   170.631  4.655081E-02
   171.181  4.696046E-02
   171.733  4.766335E-02
   172.287  4.832102E-02
   172.842  4.880401E-02
   173.399  4.917686E-02
   173.959  5.029885E-02
   174.519  5.090074E-02
   175.082  5.179611E-02
   175.646  5.240539E-02
   176.213  5.307333E-02
   176.781  5.373624E-02
   177.351  5.417617E-02
   177.923  5.453946E-02
   178.496  5.522884E-02
   179.072  5.559885E-02
   179.649  5.596013E-02
   180.228  5.597151E-02
   180.809  5.625986E-02
   181.392  5.654963E-02
   181.977  5.684084E-02
   182.564  5.713351E-02
   183.152  5.742764E-02
   183.743  5.772325E-02
   184.335  5.802032E-02
   184.930  5.831885E-02
   185.526  5.861887E-02
   186.124  5.892159E-02
   186.724  5.922732E-02
   187.326  5.953459E-02
   187.930  5.984341E-02
   188.536  6.015379E-02
   189.144  6.047118E-02
   189.754  6.079678E-02
   190.365  6.112407E-02
   190.979  6.145309E-02
   191.595  6.178383E-02
   192.213  6.211627E-02
   192.832  6.245042E-02
   193.454  6.278634E-02
   194.078  6.312399E-02
   194.703  6.346346E-02
   195.331  6.380469E-02
   195.961  6.414775E-02
   196.593  6.449265E-02
   197.227  6.483933E-02
   197.862  6.518783E-02
   198.500  6.553815E-02
   199.140  6.589032E-02
   199.782  6.624431E-02
   200.426  6.660020E-02
   201.073  6.695792E-02
   201.721  6.730903E-02
   202.371  6.765394E-02
   203.024  6.800061E-02
   203.678  6.834896E-02
   204.335  6.869911E-02
   204.994  6.904551E-02
   205.655  6.938890E-02
   206.318  6.973392E-02
   206.983  7.008059E-02
   207.650  7.042896E-02
   208.320  7.077897E-02
   208.991  7.113067E-02
   209.665  7.148404E-02
   210.341  7.183914E-02
   211.019  7.219591E-02
   211.700  7.255439E-02
   212.382  7.291461E-02
   213.067  7.327654E-02
   213.754  7.364023E-02
   214.443  7.400565E-02
   215.134  7.437284E-02
   215.828  7.474182E-02
   216.524  7.511252E-02
   217.222  7.548504E-02
   217.922  7.585935E-02
   218.625  7.624330E-02
   219.330  7.663441E-02
   220.037  7.702749E-02
   220.746  7.742253E-02
   221.458  7.781993E-02
   222.172  7.826445E-02
   222.888  7.873967E-02
   223.607  7.921777E-02
   224.328  7.969870E-02
   225.051  8.018257E-02
   225.777  8.066934E-02
   226.504  8.115906E-02
   227.235  8.165170E-02
   227.967  8.214732E-02
   228.702  8.264587E-02
   229.440  8.314748E-02
   230.179  8.365205E-02
   230.922  8.415969E-02
   231.666  8.467032E-02
   232.413  8.518403E-02
   233.162  8.570086E-02
   233.914  8.622074E-02
   234.668  8.674378E-02
   235.425  8.726990E-02
   236.184  8.779923E-02
   236.945  8.833165E-02
   237.709  8.886731E-02
   238.476  8.940608E-02
   239.244  8.994816E-02
   240.016  9.049344E-02
   240.790  9.104206E-02
   241.566  9.159395E-02
   242.345  9.214916E-02
   243.126  9.270766E-02
   243.910  9.326956E-02
   244.696  9.383483E-02
   245.485  9.440356E-02
   246.277  9.497561E-02
   247.071  9.555111E-02
   247.867  9.613010E-02
   248.666  9.674176E-02
   249.468  9.736879E-02
   250.272  9.799984E-02
   251.079  9.863497E-02
   251.889  9.927416E-02
   252.701  9.992252E-02
   253.516  0.100577
   254.333  0.101236
   255.153  0.101898
   255.976  0.102566
   256.801  0.103237
   257.629  0.103913
   258.459  0.104594
   259.293  0.105279
   260.129  0.105968
   260.967  0.106662
   261.809  0.107360
   262.653  0.108063
   263.500  0.108770
   264.349  0.109482
   265.201  0.110199
   266.056  0.110920
   266.914  0.111646
   267.775  0.112377
   268.638  0.113112
   269.504  0.113852
   270.373  0.114598
   271.245  0.115348
   272.119  0.116102
   272.997  0.116862
   273.877  0.117627
   274.760  0.118396
   275.646  0.119171
   276.534  0.119951
   277.426  0.120735
   278.320  0.121525
   279.218  0.122320
   280.118  0.123120
   281.021  0.123926
   281.927  0.124736
   282.836  0.125552
   283.748  0.126373
   284.663  0.127200
   285.580  0.128032
   286.501  0.128869
   287.425  0.129712
   288.352  0.130560
   289.281  0.131414
   290.214  0.132273
   291.150  0.133138
   292.088  0.134009
   293.030  0.134885
   293.975  0.135767
   294.922  0.136654
   295.873  0.137548
   296.827  0.138467
   297.784  0.139395
   298.744  0.140330
   299.707  0.141270
   300.674  0.142217
   301.643  0.143188
   302.616  0.144166
   303.591  0.145152
   304.570  0.146144
   305.552  0.147143
   306.537  0.148149
   307.525  0.149162
   308.517  0.150181
   309.512  0.151208
   310.509  0.152248
   311.511  0.153299
   312.515  0.154357
   313.522  0.155423
   314.533  0.156496
   315.547  0.157581
   316.565  0.158676
   317.585  0.159778
   318.609  0.160888
   319.636  0.162006
   320.667  0.163131
   321.701  0.164264
   322.738  0.165405
   323.779  0.166553
   324.822  0.167709
   325.870  0.168873
   326.920  0.170046
   327.974  0.171226
   329.032  0.172414
   330.093  0.173610
   331.157  0.174815
   332.224  0.176028
   333.296  0.177249
   334.370  0.178478
   335.448  0.179716
   336.530  0.180963
   337.615  0.182217
   338.703  0.183481
   339.795  0.184753
   340.891  0.186034
   341.990  0.187323
   343.092  0.188621
   344.198  0.189929
   345.308  0.191245
   346.421  0.192570
   347.538  0.193904
   348.659  0.195247
   349.783  0.196600
   350.911  0.197961
   352.042  0.199332
   353.177  0.200712
   354.316  0.202102
   355.458  0.203502
   356.604  0.204910
   357.754  0.206329
   358.907  0.207757
   360.064  0.209195
   361.225  0.210642
   362.390  0.212099
   363.558  0.213567
   364.730  0.215057
   365.906  0.216706
   367.086  0.218367
   368.269  0.220040
   369.457  0.221727
   370.648  0.223430
   371.843  0.225187
   373.042  0.226958
   374.244  0.228743
   375.451  0.230541
   376.662  0.232354
   377.876  0.234180
   379.094  0.236021
   380.316  0.237877
   381.543  0.239747
   382.773  0.241631
   384.007  0.243530
   385.245  0.245444
   386.487  0.247374
   387.733  0.249318
   388.983  0.251277
   390.237  0.253252
   391.495  0.255242
   392.758  0.257248
   394.024  0.259270
   395.294  0.261307
   396.569  0.263361
   397.847  0.265430
   399.130  0.267515
   400.417  0.269617
   401.708  0.271735
   403.003  0.273870
   404.302  0.276022
   405.606  0.278190
   406.913  0.280376
   408.225  0.282578
   409.541  0.284797
   410.862  0.132868
   412.186  0.133877
   413.515  0.134894
   414.848  0.135918
   416.186  0.136950
   417.528  0.137990
   418.874  0.139038
   420.224  0.140094
   421.579  0.141158
   422.938  0.142230
   424.302  0.143310
   425.670  0.144398
   427.042  0.145495
   428.419  0.146600
   429.800  0.147713
   431.186  0.148835
   432.576  0.149965
   433.971  0.151104
   435.370  0.152251
   436.774  0.153407
   438.182  0.154572
   439.595  0.155746
   441.012  0.156929
   442.434  0.158121
   443.860  0.159321
   445.291  0.160531
   446.727  0.161750
   448.167  0.162978
   449.612  0.164216
   451.062  0.165463
   452.516  0.166719
   453.975  0.167986
   455.438  0.169261
   456.907  0.170548
   458.380  0.171849
   459.858  0.173159
   461.340  0.174480
   462.828  0.175810
   464.320  0.177158
   465.817  0.178533
   467.319  0.179918
   468.825  0.181313
   470.337  0.182720
   471.853  0.184137
   473.375  0.185565
   474.901  0.187004
   476.432  0.188454
   477.968  0.189916
   479.509  0.191389
   481.055  0.192873
   482.606  0.194369
   484.162  0.195877
   485.723  0.197396
   487.289  0.198927
   488.860  0.200469
   490.436  0.202024
   492.017  0.203591
   493.603  0.205169
   495.195  0.206761
   496.791  0.208364
   498.393  0.209980
   500.000  0.211608
   500.694  0.212313
   501.388  0.213021
   502.084  0.213731
   502.780  0.214443
   503.478  0.215158
   504.176  0.215875
   504.876  0.216594
   505.576  0.217316
   506.277  0.218040
   506.980  0.218766
   507.683  0.219495
   508.387  0.220227
   509.093  0.220960
   509.799  0.221697
   510.506  0.222436
   511.214  0.223177
   511.923  0.223920
   512.634  0.224666
   513.345  0.225415
   514.057  0.226166
   514.770  0.226919
   515.484  0.227675
   516.199  0.228434
   516.915  0.229195
   517.632  0.229959
   518.351  0.230725
   519.070  0.231494
   519.790  0.232265
   520.511  0.233039
   521.233  0.233815
   521.956  0.234594
   522.680  0.235376
   523.405  0.236160
   524.131  0.236947
   524.858  0.237737
   525.586  0.238529
   526.316  0.239323
   527.046  0.240121
   527.777  0.240921
   528.509  0.241724
   529.242  0.242529
   529.976  0.243337
   530.712  0.244147
   531.448  0.244961
   532.185  0.245777
   532.923  0.246596
   533.663  0.247417
   534.403  0.248242
   535.144  0.249069
   535.887  0.249898
   536.630  0.250731
   537.375  0.251566
   538.120  0.252404
   538.867  0.253245
   539.614  0.254089
   540.363  0.254935
   541.112  0.255785
   541.863  0.256637
   542.615  0.257492
   543.367  0.258350
   544.121  0.259210
   544.876  0.260074
   545.632  0.260940
   546.389  0.261809
   547.147  0.262681
   547.906  0.263557
   548.666  0.264434
   549.427  0.265315
   550.189  0.266199
   550.953  0.267086
   551.717  0.267976
   552.482  0.268868
   553.249  0.269764
   554.016  0.270662
   554.785  0.271564
   555.554  0.272468
   556.325  0.273376
   557.097  0.274287
   557.870  0.275200
   558.644  0.276117
   559.419  0.277037
   560.195  0.277959
   560.972  0.278885
   561.750  0.279841
   562.529  0.280804
   563.310  0.281771
   564.091  0.282740
   564.874  0.283713
   565.657  0.284690
   566.442  0.285669
   567.228  0.286652
   568.015  0.287639
   568.803  0.288629
   569.592  0.289622
   570.382  0.290626
   571.173  0.291649
   571.966  0.292675
   572.759  0.293705
   573.554  0.294738
   574.349  0.295775
   575.146  0.296816
   575.944  0.297861
   576.743  0.298909
   577.543  0.299961
   578.344  0.301016
   579.146  0.302076
   579.950  0.303139
   580.754  0.304207
   581.560  0.305295
   582.367  0.306386
   583.175  0.307481
   583.984  0.308580
   584.794  0.309683
   585.605  0.310790
   586.417  0.311901
   587.231  0.313016
   588.046  0.314135
   588.861  0.315258
   589.678  0.316385
   590.496  0.317522
   591.315  0.318668
   592.136  0.319819
   592.957  0.320973
   593.780  0.322132
   594.604  0.323295
   595.428  0.324462
   596.254  0.325633
   597.082  0.326808
   597.910  0.327988
   598.739  0.329172
   599.570  0.330360
   600.402  0.331553
   601.235  0.332750
   602.069  0.333951
   602.904  0.335157
   603.740  0.336367
   604.578  0.337581
   605.417  0.338800
   606.256  0.340023
   607.097  0.341251
   607.940  0.342482
   608.783  0.343719
   609.628  0.344959
   610.473  0.346205
   611.320  0.347454
   612.168  0.348708
   613.017  0.349967
   613.868  0.351230
   614.719  0.352498
   615.572  0.353770
   616.426  0.355048
   617.281  0.356329
   618.138  0.357615
   618.995  0.358906
   619.854  0.360202
   620.714  0.361502
   621.575  0.362807
   622.437  0.364117
   623.301  0.365431
   624.165  0.366750
   625.031  0.368074
   625.898  0.369403
   626.767  0.370736
   627.636  0.372074
   628.507  0.373417
   629.379  0.374765
   630.252  0.376118
   631.126  0.377476
   632.002  0.378838
   632.878  0.380206
   633.756  0.381578
   634.635  0.382956
   635.516  0.384338
   636.397  0.385726
   637.280  0.387118
   638.164  0.388515
   639.050  0.389918
   639.936  0.391325
   640.824  0.392738
   641.713  0.394155
   642.603  0.395578
   643.495  0.397006
   644.387  0.398439
   645.281  0.399878
   646.176  0.401321
   647.073  0.402769
   647.970  0.404223
   648.869  0.405682
   649.770  0.407147
   650.671  0.408616
   651.574  0.410091
   652.477  0.411571
   653.383  0.413057
   654.289  0.414548
   655.197  0.416044
   656.106  0.417546
   657.016  0.419053
   657.927  0.420565
   658.840  0.422083
   659.754  0.423607
   660.669  0.425136
   661.586  0.426670
   662.504  0.428211
   663.423  0.429756
   664.343  0.431307
   665.265  0.432864
   666.187  0.434427
   667.112  0.435995
   668.037  0.437569
   668.964  0.439148
   669.892  0.440733
   670.821  0.442324
   671.752  0.443921
   672.684  0.445523
   673.617  0.447131
   674.551  0.448745
   675.487  0.450365
   676.424  0.451990
   677.362  0.453622
   678.302  0.455259
   679.243  0.456902
   680.185  0.458551
   681.129  0.460206
   682.074  0.461867
   683.020  0.463534
   683.968  0.465207
   684.917  0.466886
   685.867  0.468571
   686.818  0.470262
   687.771  0.471959
   688.725  0.473662
   689.680  0.475372
   690.637  0.477088
   691.595  0.478810
   692.555  0.480538
   693.516  0.482247
   694.478  0.483956
   695.441  0.485671
   696.406  0.487392
   697.372  0.489119
   698.339  0.490852
   699.308  0.492591
   700.278  0.494337
   701.250  0.496089
   702.222  0.497846
   703.197  0.499610
   704.172  0.501377
   705.149  0.503137
   706.127  0.504903
   707.107  0.506675
   708.088  0.508453
   709.070  0.510238
   710.054  0.512029
   711.039  0.513826
   712.025  0.515630
   713.013  0.517440
   714.002  0.519256
   714.992  0.521078
   715.984  0.522908
   716.978  0.524744
   717.972  0.526586
   718.968  0.528434
   719.966  0.530289
   720.964  0.532151
   721.965  0.534019
   722.966  0.535894
   723.969  0.537775
   724.973  0.539663
   725.979  0.541557
   726.986  0.543458
   727.995  0.545366
   729.005  0.547280
   730.016  0.549201
   731.029  0.551129
   732.043  0.553063
   733.058  0.555005
   734.075  0.556953
   735.094  0.558908
   736.113  0.560870
   737.135  0.562838
   738.157  0.564814
   739.181  0.566796
   740.207  0.568786
   741.234  0.570782
   742.262  0.572786
   743.292  0.574796
   744.323  0.576814
   745.355  0.578838
   746.389  0.580870
   747.425  0.582909
   748.461  0.584955
   749.500  0.587008
   750.540  0.589069
   751.581  0.591136
   752.623  0.593211
   753.667  0.595294
   754.713  0.597384
   755.760  0.599480
   756.808  0.601585
   757.858  0.603697
   758.910  0.605816
   759.962  0.607942
   761.017  0.610076
   762.072  0.612235
   763.130  0.614401
   764.188  0.616576
   765.248  0.618757
   766.310  0.620947
   767.373  0.623144
   768.438  0.625350
   769.504  0.627563
   770.571  0.629783
   771.640  0.632012
   772.711  0.634249
   773.782  0.636505
   774.856  0.638788
   775.931  0.641079
   777.007  0.643379
   778.085  0.645687
   779.165  0.648003
   780.245  0.650328
   781.328  0.652660
   782.412  0.655001
   783.497  0.657350
   784.584  0.659709
   785.673  0.662075
   786.762  0.664462
   787.854  0.666866
   788.947  0.669295
   790.041  0.671732
   791.137  0.674179
   792.235  0.676634
   793.334  0.679098
   794.434  0.681572
   795.536  0.684054
   796.640  0.686545
   797.745  0.689046
   798.852  0.691555
   799.960  0.694074
   801.070  0.696638
   802.181  0.699233
   803.294  0.701836
   804.408  0.704450
   805.524  0.707074
   806.642  0.709707
   807.761  0.712349
   808.881  0.715003
   810.003  0.717665
   811.127  0.720338
   812.252  0.723020
   813.379  0.725713
   814.508  0.728415
   815.638  0.731127
   816.769  0.733849
   817.902  0.736582
   819.037  0.739324
   820.173  0.742077
   821.311  0.744841
   822.450  0.747614
   823.591  0.750398
   824.734  0.753191
   825.878  0.755996
   827.023  0.758811
   828.171  0.761637
   829.320  0.764473
   830.470  0.767320
   831.622  0.770177
   832.776  0.773045
   833.931  0.775924
   835.088  0.778814
   836.246  0.781714
   837.406  0.784625
   838.568  0.787542
   839.732  0.790465
   840.896  0.793399
   842.063  0.796343
   843.231  0.799299
   844.401  0.802266
   845.572  0.805243
   846.745  0.808232
   847.920  0.811232
   849.096  0.814243
   850.274  0.817265
   851.454  0.820299
