# progression for http://henke.lbl.gov/optical_constants/atten2.html
# 100eV-500eV always in 500 steps, 500-1000eV, 1000-2000, 2000-4000, 4000-8000, 8000-16000, 16000-30000
# Y3Al5O12 Density=4.56, Angle=90.deg
# Photon Energy (eV), Atten Length (microns)
   100.000  4.509718E-02
   100.322  4.519273E-02
   100.646  4.528758E-02
   100.970  4.538176E-02
   101.296  4.547522E-02
   101.622  4.556800E-02
   101.950  4.566006E-02
   102.279  4.575143E-02
   102.609  4.584472E-02
   102.939  4.593935E-02
   103.271  4.603329E-02
   103.604  4.612659E-02
   103.938  4.621920E-02
   104.273  4.631908E-02
   104.610  4.642403E-02
   104.947  4.652845E-02
   105.285  4.663234E-02
   105.625  4.673567E-02
   105.965  4.683848E-02
   106.307  4.694073E-02
   106.649  4.704244E-02
   106.993  4.714359E-02
   107.338  4.724420E-02
   107.684  4.734423E-02
   108.032  4.744370E-02
   108.380  4.754260E-02
   108.729  4.764094E-02
   109.080  4.773870E-02
   109.431  4.783587E-02
   109.784  4.793245E-02
   110.138  4.802844E-02
   110.493  4.812387E-02
   110.850  4.821868E-02
   111.207  4.831287E-02
   111.566  4.840644E-02
   111.925  4.849942E-02
   112.286  4.859178E-02
   112.648  4.868357E-02
   113.011  4.877438E-02
   113.376  4.886441E-02
   113.741  4.895381E-02
   114.108  4.904263E-02
   114.476  4.913080E-02
   114.845  4.921837E-02
   115.215  4.930532E-02
   115.587  4.939165E-02
   115.959  4.947734E-02
   116.333  4.956243E-02
   116.708  4.964682E-02
   117.084  4.973056E-02
   117.462  4.981368E-02
   117.841  4.989615E-02
   118.221  4.997799E-02
   118.602  5.005922E-02
   118.984  5.013984E-02
   119.368  5.021980E-02
   119.753  5.029911E-02
   120.139  5.037779E-02
   120.526  5.045582E-02
   120.915  5.053317E-02
   121.304  5.060989E-02
   121.695  5.068595E-02
   122.088  5.076138E-02
   122.481  5.083540E-02
   122.876  5.090854E-02
   123.272  5.098098E-02
   123.670  5.105278E-02
   124.069  5.112391E-02
   124.469  5.127478E-02
   124.870  5.145173E-02
   125.273  5.162898E-02
   125.676  5.180649E-02
   126.082  5.198429E-02
   126.488  5.218591E-02
   126.896  5.239511E-02
   127.305  5.260489E-02
   127.715  5.281524E-02
   128.127  5.302618E-02
   128.540  5.323751E-02
   128.955  5.344937E-02
   129.370  5.366180E-02
   129.788  5.387482E-02
   130.206  5.408842E-02
   130.626  5.429973E-02
   131.047  5.451087E-02
   131.469  5.472251E-02
   131.893  5.493467E-02
   132.319  5.514734E-02
   132.745  5.536048E-02
   133.173  5.557413E-02
   133.603  5.578830E-02
   134.033  5.600297E-02
   134.465  5.621815E-02
   134.899  5.643042E-02
   135.334  5.664250E-02
   135.770  5.685510E-02
   136.208  5.706818E-02
   136.647  5.728175E-02
   137.088  5.748698E-02
   137.530  5.769090E-02
   137.973  5.789508E-02
   138.418  5.809952E-02
   138.864  5.830422E-02
   139.312  5.850659E-02
   139.761  5.870873E-02
   140.212  5.891104E-02
   140.664  5.911351E-02
   141.117  5.931614E-02
   141.572  5.951361E-02
   142.028  5.971036E-02
   142.486  5.990708E-02
   142.946  6.010377E-02
   143.407  6.030041E-02
   143.869  6.047710E-02
   144.333  6.065065E-02
   144.798  6.082342E-02
   145.265  6.099533E-02
   145.733  6.116638E-02
   146.203  6.132210E-02
   146.675  6.147485E-02
   147.147  6.162601E-02
   147.622  6.177555E-02
   148.098  6.192341E-02
   148.575  6.209764E-02
   149.054  6.227349E-02
   149.535  6.244868E-02
   150.017  6.262319E-02
   150.501  6.279700E-02
   150.986  6.302571E-02
   151.473  6.325819E-02
   151.961  6.349088E-02
   152.451  6.372378E-02
   152.942  6.395686E-02
   153.436  6.419556E-02
   153.930  6.443479E-02
   154.427  6.467433E-02
   154.924  6.491414E-02
   155.424  6.515423E-02
   155.925  6.535927E-02
   156.428  6.556244E-02
   156.932  6.576477E-02
   157.438  6.596627E-02
   157.946  6.616688E-02
   158.455  6.633522E-02
   158.966  6.650100E-02
   159.478  6.666462E-02
   159.992  6.682601E-02
   160.508  6.698512E-02
   161.026  6.713298E-02
   161.545  6.727808E-02
   162.066  6.742036E-02
   162.588  6.755976E-02
   163.112  6.769559E-02
   163.638  6.779334E-02
   164.166  6.788643E-02
   164.695  6.797479E-02
   165.226  6.805829E-02
   165.759  6.813557E-02
   166.293  6.816798E-02
   166.829  6.819320E-02
   167.367  6.821114E-02
   167.907  6.822158E-02
   168.448  6.822461E-02
   168.991  6.822350E-02
   169.536  6.821471E-02
   170.083  6.819800E-02
   170.631  6.817330E-02
   171.181  6.814275E-02
   171.733  6.813971E-02
   172.287  6.812988E-02
   172.842  6.811320E-02
   173.399  6.808954E-02
   173.959  6.805882E-02
   174.519  6.802078E-02
   175.082  6.797548E-02
   175.646  6.792282E-02
   176.213  6.786267E-02
   176.781  6.779898E-02
   177.351  6.776541E-02
   177.923  6.772365E-02
   178.496  6.767355E-02
   179.072  6.761505E-02
   179.649  6.756838E-02
   180.228  6.768090E-02
   180.809  6.778686E-02
   181.392  6.788623E-02
   181.977  6.797881E-02
   182.564  6.806830E-02
   183.152  6.817725E-02
   183.743  6.827921E-02
   184.335  6.837406E-02
   184.930  6.846175E-02
   185.526  6.854215E-02
   186.124  6.861518E-02
   186.724  6.868075E-02
   187.326  6.873874E-02
   187.930  6.878907E-02
   188.536  6.884173E-02
   189.144  6.894310E-02
   189.754  6.903860E-02
   190.365  6.912823E-02
   190.979  6.921187E-02
   191.595  6.930530E-02
   192.213  6.947031E-02
   192.832  6.963173E-02
   193.454  6.978950E-02
   194.078  6.994357E-02
   194.703  7.009831E-02
   195.331  7.026889E-02
   195.961  7.043624E-02
   196.593  7.060028E-02
   197.227  7.076102E-02
   197.862  7.091922E-02
   198.500  7.107733E-02
   199.140  7.123210E-02
   199.782  7.138348E-02
   200.426  7.153146E-02
   201.073  7.168632E-02
   201.721  7.187543E-02
   202.371  7.206201E-02
   203.024  7.224599E-02
   203.678  7.242733E-02
   204.335  7.262618E-02
   204.994  7.288978E-02
   205.655  7.315248E-02
   206.318  7.341418E-02
   206.983  7.367489E-02
   207.650  7.393464E-02
   208.320  7.419337E-02
   208.991  7.445108E-02
   209.665  7.470770E-02
   210.341  7.496327E-02
   211.019  7.521769E-02
   211.700  7.547094E-02
   212.382  7.572306E-02
   213.067  7.597400E-02
   213.754  7.622376E-02
   214.443  7.647231E-02
   215.134  7.671968E-02
   215.828  7.696580E-02
   216.524  7.721066E-02
   217.222  7.745425E-02
   217.922  7.769649E-02
   218.625  7.793739E-02
   219.330  7.817696E-02
   220.037  7.841516E-02
   220.746  7.865199E-02
   221.458  7.888483E-02
   222.172  7.911053E-02
   222.888  7.933485E-02
   223.607  7.955778E-02
   224.328  7.977927E-02
   225.051  8.000220E-02
   225.777  8.023003E-02
   226.504  8.045694E-02
   227.235  8.068296E-02
   227.967  8.090807E-02
   228.702  8.113225E-02
   229.440  8.135546E-02
   230.179  8.157773E-02
   230.922  8.179906E-02
   231.666  8.201942E-02
   232.413  8.223882E-02
   233.162  8.245727E-02
   233.914  8.267475E-02
   234.668  8.289118E-02
   235.425  8.310664E-02
   236.184  8.332013E-02
   236.945  8.353103E-02
   237.709  8.374090E-02
   238.476  8.394974E-02
   239.244  8.415753E-02
   240.016  8.437382E-02
   240.790  8.460452E-02
   241.566  8.483465E-02
   242.345  8.506417E-02
   243.126  8.529311E-02
   243.910  8.552847E-02
   244.696  8.577385E-02
   245.485  8.601883E-02
   246.277  8.626340E-02
   247.071  8.650757E-02
   247.867  8.675132E-02
   248.666  8.699466E-02
   249.468  8.723753E-02
   250.272  8.748001E-02
   251.079  8.772202E-02
   251.889  8.796360E-02
   252.701  8.820472E-02
   253.516  8.844536E-02
   254.333  8.868553E-02
   255.153  8.892524E-02
   255.976  8.916467E-02
   256.801  8.940388E-02
   257.629  8.964258E-02
   258.459  8.988082E-02
   259.293  9.011856E-02
   260.129  9.036168E-02
   260.967  9.061120E-02
   261.809  9.086033E-02
   262.653  9.110912E-02
   263.500  9.135751E-02
   264.349  9.161076E-02
   265.201  9.186926E-02
   266.056  9.212738E-02
   266.914  9.238505E-02
   267.775  9.264228E-02
   268.638  9.292215E-02
   269.504  9.322504E-02
   270.373  9.352736E-02
   271.245  9.382908E-02
   272.119  9.413021E-02
   272.997  9.443096E-02
   273.877  9.473127E-02
   274.760  9.503096E-02
   275.646  9.533001E-02
   276.534  9.562839E-02
   277.426  9.592646E-02
   278.320  9.622410E-02
   279.218  9.652109E-02
   280.118  9.681738E-02
   281.021  9.711297E-02
   281.927  9.740899E-02
   282.836  9.770525E-02
   283.748  9.800083E-02
   284.663  9.829570E-02
   285.580  9.858982E-02
   286.501  9.890283E-02
   287.425  9.923106E-02
   288.352  9.955897E-02
   289.281  9.988657E-02
   290.214  0.100214
   291.150  0.100541
   292.088  0.100867
   293.030  0.101194
   293.975  0.101520
   294.922  0.101845
   295.873  0.102170
   296.827  0.102495
   297.784  0.102820
   298.744  0.103144
   299.707  0.103467
   300.674  0.103790
   301.643  0.104113
   302.616  0.104436
   303.591  0.104758
   304.570  0.105079
   305.552  0.105416
   306.537  0.105761
   307.525  0.106107
   308.517  0.106453
   309.512  0.106798
   310.509  0.107178
   311.511  0.107578
   312.515  0.107979
   313.522  0.108381
   314.533  0.108782
   315.547  0.109185
   316.565  0.109587
   317.585  0.109991
   318.609  0.110394
   319.636  0.110798
   320.667  0.111203
   321.701  0.111608
   322.738  0.112013
   323.779  0.112419
   324.822  0.112825
   325.870  0.113231
   326.920  0.113638
   327.974  0.114045
   329.032  0.114453
   330.093  0.114861
   331.157  0.115269
   332.224  0.115678
   333.296  0.116087
   334.370  0.116497
   335.448  0.116907
   336.530  0.117317
   337.615  0.117728
   338.703  0.118139
   339.795  0.118550
   340.891  0.118962
   341.990  0.119386
   343.092  0.119816
   344.198  0.120247
   345.308  0.120678
   346.421  0.121110
   347.538  0.121594
   348.659  0.122098
   349.783  0.122603
   350.911  0.123110
   352.042  0.123618
   353.177  0.124127
   354.316  0.124637
   355.458  0.125149
   356.604  0.125662
   357.754  0.126176
   358.907  0.126679
   360.064  0.127179
   361.225  0.127680
   362.390  0.128183
   363.558  0.128687
   364.730  0.129188
   365.906  0.129690
   367.086  0.130192
   368.269  0.130696
   369.457  0.131202
   370.648  0.131708
   371.843  0.132216
   373.042  0.132725
   374.244  0.133236
   375.451  0.133748
   376.662  0.134287
   377.876  0.134835
   379.094  0.135384
   380.316  0.135935
   381.543  0.136487
   382.773  0.137166
   384.007  0.137874
   385.245  0.138584
   386.487  0.139298
   387.733  0.140016
   388.983  0.140737
   390.237  0.141462
   391.495  0.142191
   392.758  0.142923
   394.024  0.143659
   395.294  0.144398
   396.569  0.145140
   397.847  0.145887
   399.130  0.146636
   400.417  0.147390
   401.708  0.148147
   403.003  0.148907
   404.302  0.149671
   405.606  0.150439
   406.913  0.151211
   408.225  0.152132
   409.541  0.153076
   410.862  0.154026
   412.186  0.154981
   413.515  0.155943
   414.848  0.157002
   416.186  0.158078
   417.528  0.159161
   418.874  0.160251
   420.224  0.161349
   421.579  0.162455
   422.938  0.163567
   424.302  0.164688
   425.670  0.165816
   427.042  0.166952
   428.419  0.168096
   429.800  0.169247
   431.186  0.170406
   432.576  0.171574
   433.971  0.172749
   435.370  0.173947
   436.774  0.175154
   438.182  0.176369
   439.595  0.177593
   441.012  0.178825
   442.434  0.180073
   443.860  0.181329
   445.291  0.182594
   446.727  0.183868
   448.167  0.185150
   449.612  0.186441
   451.062  0.187741
   452.516  0.189050
   453.975  0.190368
   455.438  0.191695
   456.907  0.193032
   458.380  0.194377
   459.858  0.195732
   461.340  0.197096
   462.828  0.198468
   464.320  0.199782
   465.817  0.201105
   467.319  0.202437
   468.825  0.203777
   470.337  0.205126
   471.853  0.206477
   473.375  0.207837
   474.901  0.209206
   476.432  0.210584
   477.968  0.211971
   479.509  0.213367
   481.055  0.214772
   482.606  0.216186
   484.162  0.217609
   485.723  0.219042
   487.289  0.220484
   488.860  0.221936
   490.436  0.223396
   492.017  0.224867
   493.603  0.226347
   495.195  0.227840
   496.791  0.229342
   498.393  0.230854
   500.000  0.232376
   500.694  0.233035
   501.388  0.233695
   502.084  0.234360
   502.780  0.235026
   503.478  0.235694
   504.176  0.236365
   504.876  0.237037
   505.576  0.237710
   506.277  0.238386
   506.980  0.239064
   507.683  0.239743
   508.387  0.240425
   509.093  0.241108
   509.799  0.241794
   510.506  0.242482
   511.214  0.243172
   511.923  0.243864
   512.634  0.244558
   513.345  0.245254
   514.057  0.245951
   514.770  0.246651
   515.484  0.247353
   516.199  0.248056
   516.915  0.248762
   517.632  0.249470
   518.351  0.250179
   519.070  0.250890
   519.790  0.251603
   520.511  0.252318
   521.233  0.253035
   521.956  0.253755
   522.680  0.254476
   523.405  0.255199
   524.131  0.255924
   524.858  0.256651
   525.586  0.257381
   526.316  0.258112
   527.046  0.258844
   527.777  0.259579
   528.509  0.260316
   529.242  0.261054
   529.976  0.261795
   530.712  0.262538
   531.448  0.263283
   532.185  0.264030
   532.923  0.264778
   533.663  0.265530
   534.403  0.266283
   535.144  0.267046
   535.887  0.267816
   536.630  0.268588
   537.375  0.269362
   538.120  0.270139
   538.867  0.270918
   539.614  0.271699
   540.363  0.272482
   541.112  0.273268
   541.863  0.274055
   542.615  0.274845
   543.367  0.151221
   544.121  0.151693
   544.876  0.152167
   545.632  0.152642
   546.389  0.153119
   547.147  0.153597
   547.906  0.154076
   548.666  0.154557
   549.427  0.155040
   550.189  0.155524
   550.953  0.156009
   551.717  0.156496
   552.482  0.156985
   553.249  0.157476
   554.016  0.157969
   554.785  0.158463
   555.554  0.158959
   556.325  0.159456
   557.097  0.159955
   557.870  0.160455
   558.644  0.160957
   559.419  0.161460
   560.195  0.161965
   560.972  0.162471
   561.750  0.162979
   562.529  0.163489
   563.310  0.164000
   564.091  0.164513
   564.874  0.165027
   565.657  0.165543
   566.442  0.166060
   567.228  0.166579
   568.015  0.167100
   568.803  0.167622
   569.592  0.168146
   570.382  0.168670
   571.173  0.169193
   571.966  0.169718
   572.759  0.170245
   573.554  0.170773
   574.349  0.171302
   575.146  0.171834
   575.944  0.172367
   576.743  0.172901
   577.543  0.173437
   578.344  0.173975
   579.146  0.174515
   579.950  0.175055
   580.754  0.175597
   581.560  0.176140
   582.367  0.176685
   583.175  0.177232
   583.984  0.177780
   584.794  0.178330
   585.605  0.178882
   586.417  0.179435
   587.231  0.179990
   588.046  0.180547
   588.861  0.181105
   589.678  0.181665
   590.496  0.182226
   591.315  0.182788
   592.136  0.183353
   592.957  0.183919
   593.780  0.184487
   594.604  0.185057
   595.428  0.185629
   596.254  0.186202
   597.082  0.186777
   597.910  0.187354
   598.739  0.187932
   599.570  0.188512
   600.402  0.189094
   601.235  0.189678
   602.069  0.190264
   602.904  0.190851
   603.740  0.191441
   604.578  0.192032
   605.417  0.192624
   606.256  0.193219
   607.097  0.193815
   607.940  0.194414
   608.783  0.195014
   609.628  0.195616
   610.473  0.196220
   611.320  0.196825
   612.168  0.197433
   613.017  0.198042
   613.868  0.198653
   614.719  0.199266
   615.572  0.199881
   616.426  0.200498
   617.281  0.201117
   618.138  0.201738
   618.995  0.202361
   619.854  0.202986
   620.714  0.203613
   621.575  0.204242
   622.437  0.204873
   623.301  0.205506
   624.165  0.206141
   625.031  0.206778
   625.898  0.207416
   626.767  0.208057
   627.636  0.208699
   628.507  0.209352
   629.379  0.210009
   630.252  0.210667
   631.126  0.211327
   632.002  0.211989
   632.878  0.212653
   633.756  0.213320
   634.635  0.213988
   635.516  0.214659
   636.397  0.215331
   637.280  0.216006
   638.164  0.216686
   639.050  0.217380
   639.936  0.218076
   640.824  0.218774
   641.713  0.219474
   642.603  0.220177
   643.495  0.220881
   644.387  0.221588
   645.281  0.222297
   646.176  0.223008
   647.073  0.223722
   647.970  0.224437
   648.869  0.225167
   649.770  0.225904
   650.671  0.226643
   651.574  0.227385
   652.477  0.228129
   653.383  0.228875
   654.289  0.229624
   655.197  0.230375
   656.106  0.231128
   657.016  0.231884
   657.927  0.232643
   658.840  0.233409
   659.754  0.234209
   660.669  0.235013
   661.586  0.235819
   662.504  0.236628
   663.423  0.237439
   664.343  0.238253
   665.265  0.239070
   666.187  0.239890
   667.112  0.240713
   668.037  0.241538
   668.964  0.242367
   669.892  0.243180
   670.821  0.243982
   671.752  0.244786
   672.684  0.245593
   673.617  0.246403
   674.551  0.247216
   675.487  0.248031
   676.424  0.248849
   677.362  0.249670
   678.302  0.250493
   679.243  0.251319
   680.185  0.252148
   681.129  0.252953
   682.074  0.253762
   683.020  0.254573
   683.968  0.255386
   684.917  0.256202
   685.867  0.257021
   686.818  0.257843
   687.771  0.258666
   688.725  0.259493
   689.680  0.260322
   690.637  0.261154
   691.595  0.261986
   692.555  0.262818
   693.516  0.263652
   694.478  0.264488
   695.441  0.265328
   696.406  0.266169
   697.372  0.267014
   698.339  0.267861
   699.308  0.268711
   700.278  0.269564
   701.250  0.270420
   702.222  0.271278
   703.197  0.272161
   704.172  0.273051
   705.149  0.273944
   706.127  0.274840
   707.107  0.275739
   708.088  0.276641
   709.070  0.277546
   710.054  0.278453
   711.039  0.279364
   712.025  0.280278
   713.013  0.281194
   714.002  0.282119
   714.992  0.283061
   715.984  0.284006
   716.978  0.284954
   717.972  0.285905
   718.968  0.286859
   719.966  0.287817
   720.964  0.288777
   721.965  0.289741
   722.966  0.290708
   723.969  0.291678
   724.973  0.292652
   725.979  0.293628
   726.986  0.294607
   727.995  0.295590
   729.005  0.296576
   730.016  0.297565
   731.029  0.298557
   732.043  0.299553
   733.058  0.300552
   734.075  0.301554
   735.094  0.302560
   736.113  0.303569
   737.135  0.304581
   738.157  0.305597
   739.181  0.306617
   740.207  0.307639
   741.234  0.308666
   742.262  0.309695
   743.292  0.310728
   744.323  0.311765
   745.355  0.312805
   746.389  0.313848
   747.425  0.314895
   748.461  0.315945
   749.500  0.316999
   750.540  0.318057
   751.581  0.319118
   752.623  0.320182
   753.667  0.321251
   754.713  0.322323
   755.760  0.323398
   756.808  0.324477
   757.858  0.325559
   758.910  0.326645
   759.962  0.327735
   761.017  0.328829
   762.072  0.329929
   763.130  0.331033
   764.188  0.332141
   765.248  0.333253
   766.310  0.334368
   767.373  0.335487
   768.438  0.336610
   769.504  0.337736
   770.571  0.338866
   771.640  0.340000
   772.711  0.341138
   773.782  0.342284
   774.856  0.343442
   775.931  0.344603
   777.007  0.345769
   778.085  0.346938
   779.165  0.348111
   780.245  0.349288
   781.328  0.350469
   782.412  0.351654
   783.497  0.352843
   784.584  0.354036
   785.673  0.355233
   786.762  0.356443
   787.854  0.357659
   788.947  0.358879
   790.041  0.360103
   791.137  0.361331
   792.235  0.362564
   793.334  0.363800
   794.434  0.365041
   795.536  0.366286
   796.640  0.367535
   797.745  0.368789
   798.852  0.370046
   799.960  0.371308
   801.070  0.372574
   802.181  0.373845
   803.294  0.375119
   804.408  0.376399
   805.524  0.377682
   806.642  0.378970
   807.761  0.380262
   808.881  0.381559
   810.003  0.382859
   811.127  0.384165
   812.252  0.385474
   813.379  0.386789
   814.508  0.388108
   815.638  0.389431
   816.769  0.390758
   817.902  0.392091
   819.037  0.393427
   820.173  0.394768
   821.311  0.396114
   822.450  0.397464
   823.591  0.398819
   824.734  0.400179
   825.878  0.401543
   827.023  0.402912
   828.171  0.404285
   829.320  0.405663
   830.470  0.407046
   831.622  0.408433
   832.776  0.409825
   833.931  0.411221
   835.088  0.412623
   836.246  0.414029
   837.406  0.415440
   838.568  0.416849
   839.732  0.418257
   840.896  0.419669
   842.063  0.421086
